# Temperature [K], Thermal Conductivity (xx, xy, xz, yx, yy, yz, zx, zy, zz) [W/mK]
      0.00         0.0000         0.0000         0.0000         0.0000         0.0000         0.0000         0.0000         0.0000         0.0000
     10.00    241096.4895         0.0605         0.0605         0.0605    241096.4896         0.0605         0.0605         0.0605    241096.4895
     20.00     46121.1849         0.0072         0.0072         0.0072     46121.1849         0.0072         0.0072         0.0072     46121.1849
     30.00     17421.2874         0.0018         0.0018         0.0018     17421.2874         0.0018         0.0018         0.0018     17421.2874
     40.00      9354.4524         0.0007         0.0007         0.0007      9354.4524         0.0007         0.0007         0.0007      9354.4524
     50.00      5859.9124         0.0003         0.0003         0.0003      5859.9124         0.0003         0.0003         0.0003      5859.9124
     60.00      3735.5981         0.0002         0.0002         0.0002      3735.5981         0.0002         0.0002         0.0002      3735.5981
     70.00      2445.7879         0.0001         0.0001         0.0001      2445.7879         0.0001         0.0001         0.0001      2445.7879
     80.00      1685.6175         0.0001         0.0001         0.0001      1685.6175         0.0001         0.0001         0.0001      1685.6175
     90.00      1224.6575         0.0001         0.0001         0.0001      1224.6575         0.0001         0.0001         0.0001      1224.6575
    100.00       931.5615         0.0001         0.0001         0.0001       931.5615         0.0001         0.0001         0.0001       931.5615
    110.00       736.3066         0.0000         0.0000         0.0000       736.3066         0.0000         0.0000         0.0000       736.3066
    120.00       600.7306         0.0000         0.0000         0.0000       600.7306         0.0000         0.0000         0.0000       600.7306
    130.00       503.1370         0.0000         0.0000         0.0000       503.1370         0.0000         0.0000         0.0000       503.1370
    140.00       430.6481         0.0000         0.0000         0.0000       430.6481         0.0000         0.0000         0.0000       430.6481
    150.00       375.3147         0.0000         0.0000         0.0000       375.3147         0.0000         0.0000         0.0000       375.3147
    160.00       332.0547         0.0000         0.0000         0.0000       332.0547         0.0000         0.0000         0.0000       332.0547
    170.00       297.5166         0.0000         0.0000         0.0000       297.5166         0.0000         0.0000         0.0000       297.5166
    180.00       269.4274         0.0000         0.0000         0.0000       269.4274         0.0000         0.0000         0.0000       269.4274
    190.00       246.2074         0.0000         0.0000         0.0000       246.2074         0.0000         0.0000         0.0000       246.2074
    200.00       226.7333         0.0000         0.0000         0.0000       226.7333         0.0000         0.0000         0.0000       226.7333
    210.00       210.1900         0.0000         0.0000         0.0000       210.1900         0.0000         0.0000         0.0000       210.1900
    220.00       195.9754         0.0000         0.0000         0.0000       195.9754         0.0000         0.0000         0.0000       195.9754
    230.00       183.6367         0.0000         0.0000         0.0000       183.6367         0.0000         0.0000         0.0000       183.6367
    240.00       172.8285         0.0000         0.0000         0.0000       172.8285         0.0000         0.0000         0.0000       172.8285
    250.00       163.2834         0.0000         0.0000         0.0000       163.2834         0.0000         0.0000         0.0000       163.2834
    260.00       154.7917         0.0000         0.0000         0.0000       154.7917         0.0000         0.0000         0.0000       154.7917
    270.00       147.1870         0.0000         0.0000         0.0000       147.1870         0.0000         0.0000         0.0000       147.1870
    280.00       140.3358         0.0000         0.0000         0.0000       140.3358         0.0000         0.0000         0.0000       140.3358
    290.00       134.1298         0.0000         0.0000         0.0000       134.1298         0.0000         0.0000         0.0000       134.1298
    300.00       128.4805         0.0000         0.0000         0.0000       128.4805         0.0000         0.0000         0.0000       128.4805
    310.00       123.3147         0.0000         0.0000         0.0000       123.3147         0.0000         0.0000         0.0000       123.3147
    320.00       118.5717         0.0000         0.0000         0.0000       118.5717         0.0000         0.0000         0.0000       118.5717
    330.00       114.2002         0.0000         0.0000         0.0000       114.2002         0.0000         0.0000         0.0000       114.2002
    340.00       110.1573         0.0000         0.0000         0.0000       110.1573         0.0000         0.0000         0.0000       110.1573
    350.00       106.4063         0.0000         0.0000         0.0000       106.4063         0.0000         0.0000         0.0000       106.4063
    360.00       102.9158         0.0000         0.0000         0.0000       102.9158         0.0000         0.0000         0.0000       102.9158
    370.00        99.6589         0.0000         0.0000         0.0000        99.6589         0.0000         0.0000         0.0000        99.6589
    380.00        96.6122         0.0000         0.0000         0.0000        96.6122         0.0000         0.0000         0.0000        96.6122
    390.00        93.7553         0.0000         0.0000         0.0000        93.7553         0.0000         0.0000         0.0000        93.7553
    400.00        91.0707         0.0000         0.0000         0.0000        91.0707         0.0000         0.0000         0.0000        91.0707
    410.00        88.5427         0.0000         0.0000         0.0000        88.5427         0.0000         0.0000         0.0000        88.5427
    420.00        86.1576         0.0000         0.0000         0.0000        86.1576         0.0000         0.0000         0.0000        86.1576
    430.00        83.9032         0.0000         0.0000         0.0000        83.9032         0.0000         0.0000         0.0000        83.9032
    440.00        81.7689         0.0000         0.0000         0.0000        81.7689         0.0000         0.0000         0.0000        81.7689
    450.00        79.7449         0.0000         0.0000         0.0000        79.7449         0.0000         0.0000         0.0000        79.7449
    460.00        77.8228         0.0000         0.0000         0.0000        77.8228         0.0000         0.0000         0.0000        77.8228
    470.00        75.9947         0.0000         0.0000         0.0000        75.9947         0.0000         0.0000         0.0000        75.9947
    480.00        74.2538         0.0000         0.0000         0.0000        74.2538         0.0000         0.0000         0.0000        74.2538
    490.00        72.5938         0.0000         0.0000         0.0000        72.5938         0.0000         0.0000         0.0000        72.5938
    500.00        71.0091         0.0000         0.0000         0.0000        71.0091         0.0000         0.0000         0.0000        71.0091
    510.00        69.4944         0.0000         0.0000         0.0000        69.4944         0.0000         0.0000         0.0000        69.4944
    520.00        68.0452         0.0000         0.0000         0.0000        68.0452         0.0000         0.0000         0.0000        68.0452
    530.00        66.6572         0.0000         0.0000         0.0000        66.6572         0.0000         0.0000         0.0000        66.6572
    540.00        65.3264         0.0000         0.0000         0.0000        65.3264         0.0000         0.0000         0.0000        65.3264
    550.00        64.0494         0.0000         0.0000         0.0000        64.0494         0.0000         0.0000         0.0000        64.0494
    560.00        62.8228         0.0000         0.0000         0.0000        62.8228         0.0000         0.0000         0.0000        62.8228
    570.00        61.6437         0.0000         0.0000         0.0000        61.6437         0.0000         0.0000         0.0000        61.6437
    580.00        60.5093         0.0000         0.0000         0.0000        60.5093         0.0000         0.0000         0.0000        60.5093
    590.00        59.4170         0.0000         0.0000         0.0000        59.4170         0.0000         0.0000         0.0000        59.4170
    600.00        58.3645         0.0000         0.0000         0.0000        58.3645         0.0000         0.0000         0.0000        58.3645
    610.00        57.3496         0.0000         0.0000         0.0000        57.3496         0.0000         0.0000         0.0000        57.3496
    620.00        56.3703         0.0000         0.0000         0.0000        56.3703         0.0000         0.0000         0.0000        56.3703
    630.00        55.4247         0.0000         0.0000         0.0000        55.4247         0.0000         0.0000         0.0000        55.4247
    640.00        54.5110         0.0000         0.0000         0.0000        54.5110         0.0000         0.0000         0.0000        54.5110
    650.00        53.6277         0.0000         0.0000         0.0000        53.6277         0.0000         0.0000         0.0000        53.6277
    660.00        52.7732         0.0000         0.0000         0.0000        52.7732         0.0000         0.0000         0.0000        52.7732
    670.00        51.9461         0.0000         0.0000         0.0000        51.9461         0.0000         0.0000         0.0000        51.9461
    680.00        51.1450         0.0000         0.0000         0.0000        51.1450         0.0000         0.0000         0.0000        51.1450
    690.00        50.3688         0.0000         0.0000         0.0000        50.3688         0.0000         0.0000         0.0000        50.3688
    700.00        49.6163         0.0000         0.0000         0.0000        49.6163         0.0000         0.0000         0.0000        49.6163
    710.00        48.8864         0.0000         0.0000         0.0000        48.8864         0.0000         0.0000         0.0000        48.8864
    720.00        48.1781         0.0000         0.0000         0.0000        48.1781         0.0000         0.0000         0.0000        48.1781
    730.00        47.4904         0.0000         0.0000         0.0000        47.4904         0.0000         0.0000         0.0000        47.4904
    740.00        46.8224         0.0000         0.0000         0.0000        46.8224         0.0000         0.0000         0.0000        46.8224
    750.00        46.1733         0.0000         0.0000         0.0000        46.1733         0.0000         0.0000         0.0000        46.1733
    760.00        45.5422         0.0000         0.0000         0.0000        45.5422         0.0000         0.0000         0.0000        45.5422
    770.00        44.9285         0.0000         0.0000         0.0000        44.9285         0.0000         0.0000         0.0000        44.9285
    780.00        44.3313         0.0000         0.0000         0.0000        44.3313         0.0000         0.0000         0.0000        44.3313
    790.00        43.7501         0.0000         0.0000         0.0000        43.7501         0.0000         0.0000         0.0000        43.7501
    800.00        43.1841         0.0000         0.0000         0.0000        43.1841         0.0000         0.0000         0.0000        43.1841
    810.00        42.6329         0.0000         0.0000         0.0000        42.6329         0.0000         0.0000         0.0000        42.6329
    820.00        42.0957         0.0000         0.0000         0.0000        42.0957         0.0000         0.0000         0.0000        42.0957
    830.00        41.5722         0.0000         0.0000         0.0000        41.5722         0.0000         0.0000         0.0000        41.5722
    840.00        41.0616         0.0000         0.0000         0.0000        41.0616         0.0000         0.0000         0.0000        41.0616
    850.00        40.5637         0.0000         0.0000         0.0000        40.5637         0.0000         0.0000         0.0000        40.5637
    860.00        40.0778         0.0000         0.0000         0.0000        40.0778         0.0000         0.0000         0.0000        40.0778
    870.00        39.6036         0.0000         0.0000         0.0000        39.6036         0.0000         0.0000         0.0000        39.6036
    880.00        39.1406         0.0000         0.0000         0.0000        39.1406         0.0000         0.0000         0.0000        39.1406
    890.00        38.6885         0.0000         0.0000         0.0000        38.6885         0.0000         0.0000         0.0000        38.6885
    900.00        38.2469         0.0000         0.0000         0.0000        38.2469         0.0000         0.0000         0.0000        38.2469
    910.00        37.8153         0.0000         0.0000         0.0000        37.8153         0.0000         0.0000         0.0000        37.8153
    920.00        37.3935         0.0000         0.0000         0.0000        37.3935         0.0000         0.0000         0.0000        37.3935
    930.00        36.9811         0.0000         0.0000         0.0000        36.9811         0.0000         0.0000         0.0000        36.9811
    940.00        36.5778         0.0000         0.0000         0.0000        36.5778         0.0000         0.0000         0.0000        36.5778
    950.00        36.1833         0.0000         0.0000         0.0000        36.1833         0.0000         0.0000         0.0000        36.1833
    960.00        35.7973         0.0000         0.0000         0.0000        35.7973         0.0000         0.0000         0.0000        35.7973
    970.00        35.4196         0.0000         0.0000         0.0000        35.4196         0.0000         0.0000         0.0000        35.4196
    980.00        35.0498         0.0000         0.0000         0.0000        35.0498         0.0000         0.0000         0.0000        35.0498
    990.00        34.6878         0.0000         0.0000         0.0000        34.6878         0.0000         0.0000         0.0000        34.6878
   1000.00        34.3332         0.0000         0.0000         0.0000        34.3332         0.0000         0.0000         0.0000        34.3332
